wavelength ,transmission 
2600,83.24907
2599,83.47359
2598,83.80483
2597,84.23251
2596,84.76769
2595,85.30360
2594,85.89760
2593,86.51406
2592,87.12267
2591,87.73191
2590,88.32776
2589,88.87059
2588,89.40662
2587,89.88704
2586,90.31029
2585,90.65452
2584,90.93213
2583,91.13498
2582,91.35473
2581,91.42246
2580,91.43716
2579,91.33612
2578,91.16428
2577,90.97580
2576,90.68825
2575,90.37433
2574,89.96660
2573,89.40479
2572,88.77072
2571,88.11937
2570,87.28421
2569,86.46515
2568,85.61298
2567,84.79065
2566,83.96601
2565,83.22884
2564,82.45535
2563,81.78045
2562,81.17667
2561,80.66732
2560,80.21910
2559,79.85036
2558,79.55909
2557,79.34022
2556,79.19999
2555,79.10117
2554,79.08856
2553,79.15542
2552,79.29575
2551,79.51348
2550,79.86937
2549,80.29962
2548,80.81184
2547,81.37008
2546,81.94247
2545,82.56012
2544,83.20844
2543,83.87055
2542,84.52269
2541,85.22396
2540,85.91092
2539,86.58038
2538,87.28455
2537,87.95391
2536,88.64417
2535,89.29279
2534,89.88140
2533,90.41904
2532,90.87744
2531,91.32296
2530,91.64341
2529,91.86084
2528,92.07940
2527,92.19825
2526,92.23383
2525,92.27852
2524,92.25440
2523,92.17716
2522,92.03350
2521,91.86041
2520,91.68406
2519,91.47567
2518,91.22691
2517,91.01844
2516,90.80836
2515,90.55492
2514,90.34860
2513,90.17563
2512,90.04913
2511,89.95481
2510,89.86297
2509,89.80784
2508,89.78886
2507,89.79303
2506,89.84168
2505,89.91763
2504,90.02345
2503,90.13837
2502,90.23977
2501,90.33656
2500,90.44747
2499,90.59414
2498,90.76751
2497,90.91219
2496,91.06420
2495,91.17871
2494,91.25993
2493,91.33564
2492,91.41722
2491,91.49370
2490,91.55379
2489,91.59787
2488,91.65033
2487,91.67773
2486,91.66284
2485,91.65287
2484,91.68906
2483,91.73168
2482,91.74406
2481,91.75719
2480,91.77824
2479,91.78654
2478,91.80335
2477,91.83293
2476,91.89017
2475,91.92476
2474,91.97234
2473,91.99921
2472,92.03699
2471,92.05145
2470,92.05834
2469,92.04483
2468,92.01302
2467,91.92104
2466,91.78553
2465,91.59074
2464,91.36932
2463,91.11669
2462,90.78567
2461,90.39520
2460,89.96633
2459,89.49758
2458,88.99224
2457,88.42867
2456,87.82942
2455,87.16391
2454,86.47920
2453,85.78343
2452,85.08287
2451,84.39740
2450,83.70308
2449,83.02226
2448,82.38546
2447,81.78596
2446,81.22471
2445,80.69865
2444,80.21894
2443,79.83314
2442,79.51082
2441,79.22640
2440,79.01372
2439,78.88449
2438,78.84236
2437,78.88646
2436,79.02807
2435,79.23478
2434,79.47880
2433,79.77985
2432,80.13652
2431,80.57814
2430,81.05939
2429,81.55508
2428,82.05729
2427,82.55703
2426,83.05336
2425,83.50339
2424,83.90908
2423,84.26728
2422,84.57601
2421,84.80198
2420,84.93610
2419,84.98692
2418,84.95797
2417,84.85819
2416,84.70394
2415,84.45137
2414,84.07977
2413,83.66567
2412,83.19140
2411,82.64445
2410,82.12058
2409,81.58863
2408,81.00269
2407,80.43024
2406,79.87263
2405,79.32186
2404,78.83287
2403,78.38173
2402,77.97278
2401,77.65216
2400,77.39920
2399,77.22479
2398,77.12664
2397,77.10525
2396,77.16236
2395,77.26535
2394,77.45452
2393,77.73647
2392,78.06869
2391,78.46157
2390,78.91566
2389,79.40060
2388,79.92772
2387,80.48109
2386,81.00578
2385,81.53148
2384,82.04529
2383,82.51650
2382,82.94070
2381,83.33939
2380,83.68208
2379,83.99759
2378,84.23557
2377,84.38878
2376,84.50062
2375,84.57569
2374,84.59560
2373,84.56118
2372,84.54832
2371,84.51542
2370,84.42559
2369,84.32987
2368,84.23085
2367,84.15487
2366,84.11227
2365,84.07566
2364,84.08712
2363,84.15487
2362,84.27374
2361,84.42569
2360,84.62369
2359,84.84774
2358,85.11576
2357,85.42287
2356,85.76760
2355,86.13260
2354,86.49188
2353,86.84259
2352,87.15117
2351,87.44791
2350,87.69493
2349,87.89676
2348,88.06823
2347,88.18406
2346,88.22294
2345,88.16912
2344,88.02758
2343,87.81883
2342,87.52573
2341,87.20369
2340,86.85356
2339,86.47675
2338,86.07022
2337,85.65080
2336,85.23695
2335,84.83474
2334,84.47029
2333,84.16678
2332,83.92589
2331,83.70269
2330,83.54583
2329,83.48984
2328,83.51400
2327,83.59435
2326,83.75981
2325,83.99147
2324,84.25535
2323,84.57053
2322,84.91608
2321,85.28689
2320,85.66030
2319,86.01844
2318,86.34307
2317,86.62281
2316,86.79533
2315,86.84034
2314,86.76483
2313,86.52970
2312,86.12983
2311,85.58384
2310,84.93142
2309,84.14572
2308,83.17581
2307,82.11351
2306,80.98225
2305,79.71337
2304,78.45503
2303,77.15979
2302,75.89956
2301,74.70041
2300,73.56284
2299,72.47910
2298,71.51390
2297,70.59787
2296,69.84564
2295,69.22911
2294,68.79596
2293,68.46693
2292,68.27039
2291,68.21608
2290,68.30875
2289,68.52333
2288,68.89118
2287,69.39522
2286,70.00511
2285,70.81127
2284,71.62597
2283,72.53385
2282,73.48834
2281,74.46919
2280,75.50334
2279,76.52474
2278,77.43847
2277,78.27373
2276,78.98082
2275,79.54319
2274,79.95944
2273,80.16371
2272,80.15448
2271,79.95883
2270,79.58660
2269,79.03058
2268,78.33011
2267,77.51290
2266,76.64754
2265,75.69950
2264,74.77154
2263,73.79475
2262,72.91384
2261,72.05361
2260,71.29312
2259,70.61889
2258,70.05695
2257,69.63258
2256,69.32970
2255,69.15710
2254,69.10017
2253,69.18861
2252,69.39444
2251,69.72518
2250,70.16257
2249,70.71017
2248,71.33808
2247,72.02826
2246,72.73434
2245,73.53538
2244,74.31848
2243,75.07326
2242,75.85204
2241,76.52100
2240,77.11800
2239,77.64181
2238,77.98404
2237,78.26887
2236,78.42428
2235,78.45074
2234,78.37307
2233,78.23187
2232,77.98743
2231,77.66423
2230,77.31151
2229,76.93585
2228,76.61660
2227,76.30459
2226,76.08673
2225,75.90267
2224,75.80181
2223,75.76827
2222,75.85830
2221,76.03843
2220,76.28988
2219,76.65216
2218,77.06456
2217,77.53147
2216,78.08153
2215,78.59602
2214,79.15754
2213,79.72806
2212,80.23853
2211,80.75710
2210,81.19641
2209,81.54395
2208,81.77861
2207,81.89814
2206,81.88827
2205,81.81977
2204,81.61939
2203,81.28825
2202,80.91454
2201,80.48037
2200,79.92796
2199,79.42111
2198,78.90332
2197,78.43569
2196,78.00022
2195,77.65650
2194,77.35709
2193,77.20660
2192,77.17066
2191,77.17901
2190,77.27540
2189,77.50097
2188,77.84501
2187,78.21970
2186,78.63289
2185,79.12305
2184,79.54305
2183,79.95623
2182,80.26465
2181,80.43560
2180,80.45393
2179,80.30527
2178,80.03129
2177,79.53900
2176,78.85783
2175,78.00521
2174,77.03312
2173,75.85765
2172,74.59948
2171,73.21030
2170,71.83004
2169,70.43289
2168,69.05611
2167,67.81357
2166,66.55083
2165,65.35922
2164,64.31626
2163,63.40998
2162,62.64371
2161,62.07541
2160,61.61321
2159,61.35659
2158,61.25540
2157,61.31490
2156,61.52867
2155,61.83382
2154,62.27422
2153,62.84999
2152,63.45425
2151,64.10907
2150,64.70112
2149,65.30934
2148,65.85188
2147,66.32988
2146,66.62906
2145,66.78368
2144,66.76725
2143,66.57717
2142,66.20431
2141,65.65570
2140,64.95021
2139,64.12412
2138,63.22132
2137,62.24246
2136,61.24378
2135,60.21931
2134,59.21638
2133,58.32169
2132,57.45450
2131,56.66147
2130,55.97877
2129,55.39803
2128,54.87851
2127,54.47390
2126,54.18911
2125,54.00222
2124,53.91812
2123,53.88846
2122,53.93162
2121,54.04546
2120,54.21055
2119,54.38122
2118,54.54676
2117,54.71075
2116,54.87365
2115,55.01677
2114,55.07593
2113,55.07762
2112,55.01846
2111,54.92773
2110,54.75112
2109,54.55113
2108,54.32890
2107,54.12803
2106,53.94027
2105,53.75077
2104,53.59262
2103,53.49851
2102,53.48696
2101,53.57084
2100,53.75577
2099,54.02435
2098,54.39032
2097,54.87165
2096,55.41251
2095,56.02409
2094,56.72606
2093,57.46913
2092,58.26373
2091,59.10549
2090,59.86399
2089,60.62132
2088,61.30774
2087,61.91182
2086,62.41665
2085,62.80017
2084,62.96243
2083,62.98404
2082,62.86528
2081,62.61602
2080,62.27057
2079,61.80418
2078,61.24954
2077,60.67620
2076,60.14866
2075,59.64995
2074,59.23602
2073,58.89813
2072,58.66325
2071,58.57386
2070,58.66207
2069,58.88807
2068,59.26546
2067,59.80927
2066,60.50876
2065,61.36639
2064,62.32348
2063,63.34596
2062,64.41326
2061,65.50112
2060,66.61007
2059,67.65809
2058,68.57119
2057,69.34667
2056,69.93376
2055,70.33112
2054,70.53620
2053,70.50269
2052,70.27324
2051,69.88648
2050,69.37305
2049,68.77777
2048,68.12931
2047,67.42110
2046,66.72045
2045,66.09813
2044,65.58210
2043,65.16090
2042,64.85807
2041,64.74149
2040,64.80483
2039,65.00134
2038,65.34412
2037,65.84936
2036,66.50707
2035,67.25022
2034,68.05373
2033,68.86298
2032,69.65059
2031,70.41781
2030,71.07381
2029,71.56225
2028,71.87347
2027,71.98502
2026,71.89144
2025,71.59650
2024,71.10067
2023,70.45474
2022,69.72325
2021,68.92292
2020,68.06853
2019,67.22786
2018,66.40472
2017,65.68852
2016,65.10141
2015,64.59948
2014,64.20605
2013,63.96880
2012,63.90666
2011,63.94474
2010,64.06692
2009,64.28879
2008,64.60227
2007,64.98079
2006,65.37959
2005,65.77104
2004,66.12378
2003,66.38974
2002,66.54619
2001,66.60712
2000,66.51941
1999,66.26985
1998,65.88119
1997,65.34942
1996,64.72253
1995,64.04878
1994,63.31598
1993,62.57510
1992,61.86785
1991,61.22828
1990,60.67834
1989,60.23723
1988,59.92050
1987,59.76502
1986,59.74980
1985,59.86635
1984,60.10791
1983,60.49111
1982,60.99319
1981,61.58818
1980,62.26290
1979,62.96495
1978,63.67016
1977,64.37167
1976,65.02050
1975,65.59808
1974,66.09262
1973,66.47940
1972,66.75909
1971,66.94059
1970,67.02772
1969,67.03258
1968,66.95416
1967,66.83585
1966,66.70633
1965,66.54744
1964,66.39243
1963,66.32219
1962,66.32585
1961,66.40512
1960,66.57807
1959,66.81274
1958,67.14694
1957,67.54087
1956,68.01844
1955,68.53083
1954,69.02679
1953,69.53871
1952,70.04444
1951,70.46607
1950,70.78896
1949,71.00875
1948,71.15167
1947,71.17434
1946,71.08377
1945,70.90767
1944,70.67828
1943,70.45766
1942,70.21600
1941,69.94456
1940,69.68421
1939,69.46477
1938,69.30896
1937,69.22453
1936,69.23021
1935,69.30317
1934,69.42567
1933,69.56310
1932,69.69645
1931,69.92372
1930,70.04165
1929,70.08493
1928,70.13065
1927,70.09553
1926,69.94714
1925,69.69390
1924,69.38801
1923,68.98618
1922,68.41482
1921,67.74339
1920,67.09732
1919,66.43370
1918,65.83230
1917,65.40814
1916,65.03666
1915,64.69818
1914,64.37444
1913,64.11049
1912,63.99634
1911,63.99490
1910,64.12349
1909,64.34726
1908,64.59071
1907,64.82875
1906,65.06658
1905,65.21320
1904,65.30519
1903,65.36971
1902,65.39853
1901,65.26309
1900,64.99495
1899,64.59021
1898,64.08258
1897,63.65636
1896,63.27148
1895,62.80076
1894,62.38425
1893,61.92900
1892,61.41801
1891,61.01143
1890,60.72202
1889,60.57056
1888,60.65919
1887,60.81277
1886,61.08412
1885,61.46722
1884,61.93362
1883,62.49046
1882,63.08087
1881,63.79570
1880,64.54672
1879,65.26006
1878,65.97680
1877,66.53169
1876,67.00151
1875,67.43721
1874,67.77492
1873,67.92543
1872,68.08055
1871,68.16064
1870,68.19220
1869,68.17847
1868,68.20152
1867,68.14714
1866,68.21438
1865,68.24136
1864,68.25896
1863,68.30889
1862,68.32799
1861,68.25178
1860,68.21261
1859,68.13274
1858,68.03664
1857,68.00072
1856,67.95769
1855,67.87796
1854,67.72407
1853,67.51553
1852,67.31760
1851,67.20369
1850,67.13037
1849,67.06462
1848,66.96525
1847,66.72235
1846,66.74610
1845,66.65486
1844,66.87338
1843,67.12679
1842,67.29657
1841,67.25581
1840,67.17113
1839,67.18939
1838,67.07175
1837,66.86596
1836,66.58543
1835,66.17168
1834,65.75819
1833,65.33163
1832,64.83249
1831,64.18791
1830,63.44166
1829,62.85617
1828,62.35508
1827,61.86129
1826,61.45154
1825,61.22343
1824,61.13675
1823,61.19440
1822,61.26978
1821,61.26743
1820,61.20478
1819,61.30904
1818,61.39493
1817,61.54089
1816,61.55395
1815,61.41973
1814,61.14148
1813,60.78570
1812,60.24859
1811,59.61730
1810,58.94378
1809,58.30344
1808,57.67324
1807,57.05500
1806,56.42853
1805,55.84976
1804,55.42872
1803,55.11752
1802,55.00333
1801,54.98072
1800,55.06876
1799,55.27540
1798,55.59837
1797,55.99367
1796,56.35635
1795,56.71555
1794,57.02668
1793,57.24572
1792,57.39444
1791,57.43214
1790,57.37429
1789,57.22493
1788,57.03250
1787,56.82997
1786,56.62847
1785,56.44117
1784,56.33431
1783,56.38093
1782,56.51152
1781,56.77750
1780,57.15797
1779,57.68569
1778,58.27435
1777,58.90915
1776,59.58741
1775,60.24956
1774,60.84163
1773,61.34512
1772,61.73242
1771,61.99676
1770,62.12350
1769,62.10457
1768,61.97916
1767,61.79524
1766,61.58335
1765,61.40211
1764,61.30243
1763,61.30326
1762,61.41186
1761,61.66422
1760,62.06922
1759,62.60206
1758,63.19733
1757,63.80392
1756,64.35263
1755,64.78999
1754,65.03490
1753,65.00437
1752,64.69360
1751,64.10311
1750,63.20089
1749,62.12224
1748,60.92159
1747,59.66966
1746,58.46528
1745,57.42508
1744,56.57259
1743,55.96821
1742,55.63378
1741,55.62937
1740,55.87898
1739,56.35970
1738,57.06248
1737,57.93042
1736,58.85339
1735,59.74636
1734,60.50185
1733,61.01871
1732,61.20236
1731,60.99591
1730,60.38201
1729,59.38524
1728,58.07185
1727,56.49938
1726,54.84168
1725,53.21619
1724,51.71574
1723,50.41000
1722,49.27925
1721,48.46254
1720,47.95335
1719,47.75017
1718,47.84177
1717,48.19827
1716,48.78974
1715,49.56385
1714,50.43692
1713,51.28991
1712,52.08599
1711,52.71809
1710,53.12271
1709,53.27038
1708,53.16897
1707,52.85989
1706,52.39160
1705,51.86254
1704,51.33982
1703,50.91275
1702,50.64187
1701,50.58123
1700,50.76846
1699,51.22000
1698,51.94627
1697,52.83621
1696,53.94433
1695,55.20643
1694,56.55123
1693,57.91382
1692,59.20860
1691,60.34073
1690,61.26770
1689,61.95299
1688,62.37194
1687,62.54604
1686,62.54998
1685,62.41780
1684,62.22495
1683,62.03244
1682,61.90502
1681,61.88887
1680,61.98127
1679,62.18094
1678,62.46897
1677,62.77937
1676,63.01251
1675,63.06955
1674,62.92956
1673,62.51155
1672,61.80338
1671,60.83445
1670,59.62667
1669,58.20893
1668,56.73004
1667,55.28988
1666,53.81607
1665,52.44779
1664,51.17740
1663,50.02083
1662,48.98745
1661,48.08155
1660,47.26345
1659,46.46737
1658,45.71197
1657,45.02709
1656,44.38018
1655,43.77306
1654,43.22941
1653,42.75393
1652,42.39318
1651,42.16237
1650,42.04860
1649,42.08871
1648,42.29251
1647,42.64291
1646,43.10853
1645,43.67442
1644,44.23680
1643,44.67734
1642,44.94996
1641,44.97178
1640,44.67857
1639,44.03625
1638,43.07236
1637,41.88855
1636,40.55510
1635,39.17178
1634,37.90137
1633,36.79427
1632,35.95965
1631,35.47611
1630,35.32368
1629,35.54351
1628,36.14893
1627,37.16302
1626,38.53261
1625,40.25540
1624,42.20526
1623,44.15999
1622,46.03917
1621,47.57653
1620,48.57336
1619,48.99939
1618,48.83755
1617,48.15902
1616,47.10532
1615,45.88895
1614,44.73183
1613,43.73690
1612,43.04768
1611,42.77080
1610,42.96082
1609,43.64876
1608,44.83598
1607,46.52493
1606,48.62912
1605,51.02809
1604,53.57983
1603,56.04682
1602,58.15142
1601,59.69359
1600,60.51562
1599,60.56756
1598,60.01465
1597,59.10950
1596,58.10516
1595,57.22071
1594,56.67752
1593,56.57998
1592,56.93555
1591,57.75215
1590,58.94809
1589,60.32464
1588,61.64790
1587,62.70797
1586,63.25523
1585,63.10221
1584,62.25024
1583,60.86878
1582,59.09893
1581,57.25437
1580,55.51862
1579,54.05171
1578,52.98600
1577,52.41007
1576,52.36013
1575,52.79201
1574,53.61217
1573,54.71016
1572,55.84262
1571,56.79344
1570,57.32181
1569,57.29529
1568,56.57987
1567,55.18144
1566,53.30202
1565,51.20227
1564,49.04596
1563,47.04868
1562,45.51334
1561,44.41714
1560,43.85679
1559,43.86354
1558,44.38927
1557,45.40882
1556,46.70022
1555,48.13358
1554,49.49397
1553,50.60374
1552,51.23305
1551,51.31147
1550,50.86670
1549,50.02180
1548,48.98454
1547,48.02461
1546,47.30232
1545,46.96878
1544,47.13201
1543,47.86800
1542,49.15046
1541,50.95081
1540,53.09431
1539,55.48418
1538,57.77627
1537,59.63120
1536,60.96440
1535,61.41738
1534,61.04661
1533,60.04103
1532,58.67321
1531,57.20514
1530,55.91257
1529,54.93633
1528,54.46268
1527,54.47037
1526,55.01912
1525,55.90281
1524,56.95978
1523,57.96956
1522,58.62671
1521,58.71056
1520,58.12304
1519,56.86290
1518,55.07648
1517,53.18912
1516,51.27324
1515,49.62936
1514,48.47438
1513,47.78166
1512,47.64669
1511,47.95631
1510,48.61823
1509,49.40021
1508,50.08460
1507,50.43403
1506,50.28767
1505,49.59719
1504,48.34641
1503,46.76299
1502,45.01154
1501,43.35984
1500,42.01246
1499,41.00325
1498,40.49385
1497,40.38482
1496,40.71721
1495,41.41424
1494,42.37343
1493,43.46474
1492,44.47197
1491,45.29423
1490,45.72881
1489,45.78334
1488,45.45892
1487,44.84909
1486,44.15917
1485,43.52091
1484,43.12099
1483,43.12503
1482,43.52308
1481,44.40313
1480,45.66796
1479,47.27513
1478,49.00331
1477,50.73319
1476,52.24763
1475,53.34163
1474,54.04910
1473,54.37192
1472,54.50152
1471,54.58871
1470,54.84995
1469,55.46476
1468,56.41568
1467,57.81525
1466,59.29114
1465,60.78941
1464,62.01884
1463,62.72232
1462,62.83977
1461,62.31192
1460,61.34835
1459,60.22083
1458,59.14919
1457,58.50416
1456,58.36414
1455,58.84944
1454,59.80581
1453,61.17939
1452,62.64236
1451,63.77132
1450,64.15271
1449,63.46886
1448,61.65303
1447,58.84964
1446,55.75071
1445,52.54889
1444,49.69592
1443,47.68345
1442,46.42553
1441,45.97461
1440,46.26066
1439,47.19040
1438,48.19022
1437,48.96313
1436,49.01760
1435,48.03150
1434,46.05852
1433,43.23916
1432,40.22451
1431,37.30550
1430,34.94006
1429,33.32655
1428,32.45711
1427,32.42134
1426,33.23735
1425,34.94794
1424,37.49974
1423,40.61189
1422,43.84287
1421,46.79426
1420,48.85776
1419,49.37531
1418,48.46801
1417,46.57424
1416,44.31612
1415,42.21371
1414,40.39469
1413,39.33731
1412,39.30378
1411,40.19739
1410,42.13664
1409,44.99598
1408,48.43168
1407,52.33825
1406,55.95851
1405,59.20896
1404,61.48212
1403,62.30903
1402,62.02053
1401,60.87379
1400,59.35461
1399,58.07469
1398,57.46036
1397,57.64054
1396,58.49558
1395,59.69438
1394,61.06572
1393,62.85030
1392,64.94628
1391,66.89682
1390,68.45580
1389,69.84564
1388,70.75325
1387,70.84203
1386,70.11483
1385,68.54113
1384,66.05120
1383,62.61766
1382,58.85523
1381,55.44074
1380,52.85818
1379,51.13765
1378,50.37985
1377,50.65115
1376,51.90176
1375,54.04674
1374,56.86241
1373,59.84356
1372,62.13636
1371,62.72274
1370,60.98621
1369,57.52276
1368,52.87603
1367,47.91675
1366,44.01575
1365,41.23238
1364,39.55685
1363,39.35059
1362,40.87322
1361,43.85249
1360,48.01770
1359,53.17964
1358,58.37384
1357,62.20155
1356,63.22713
1355,61.04927
1354,56.83717
1353,52.39517
1352,48.65061
1351,46.36696
1350,45.85189
1349,47.10756
1348,50.12336
1347,54.91407
1346,60.96836
1345,67.42122
1344,72.57034
1343,74.99404
1342,74.66063
1341,72.22186
1340,69.22498
1339,66.72557
1338,65.64978
1337,66.34846
1336,68.70016
1335,72.01968
1334,75.28931
1333,77.06103
1332,76.05356
1331,72.08237
1330,66.11344
1329,59.80336
1328,54.35010
1327,50.42714
1326,48.41764
1325,48.30781
1324,50.12525
1323,53.65415
1322,58.52035
1321,63.64948
1320,67.15871
1319,67.68096
1318,64.79729
1317,59.69282
1316,54.03542
1315,49.29083
1314,46.07551
1313,44.51966
1312,44.85819
1311,46.79393
1310,50.25446
1309,54.98990
1308,60.35106
1307,65.22607
1306,68.80761
1305,70.57078
1304,70.63575
1303,69.80699
1302,68.93821
1301,68.67817
1300,69.35304
1299,71.01814
1298,73.41505
1297,76.15791
1296,78.76786
1295,80.82657
1294,82.13148
1293,82.70358
1292,82.81925
1291,82.69105
1290,82.47002
1289,82.06382
1288,81.15598
1287,79.50161
1286,76.95625
1285,73.62643
1284,70.00406
1283,66.69255
1282,64.19852
1281,62.98255
1280,63.31467
1279,65.21041
1278,68.39435
1277,72.45420
1276,76.28404
1275,78.57023
1274,78.68693
1273,76.52494
1272,72.81721
1271,68.69129
1270,65.24322
1269,63.15837
1268,62.75658
1267,64.03307
1266,66.77948
1265,70.62800
1264,74.88172
1263,78.71863
1262,81.41765
1261,82.56931
1260,82.27378
1259,81.15493
1258,79.87122
1257,78.91365
1256,78.64696
1255,79.12970
1254,80.14527
1253,81.40481
1252,82.61189
1251,83.58324
1250,84.20570
1249,84.55349
1248,84.83656
1247,85.17729
1246,85.67077
1245,86.28209
1244,86.78665
1243,86.97362
1242,86.64661
1241,85.78994
1240,84.55010
1239,83.28729
1238,82.38427
1237,82.08774
1236,82.56430
1235,83.73796
1234,85.40881
1233,87.11945
1232,88.36262
1231,88.77552
1230,88.17764
1229,86.81224
1228,85.09740
1227,83.57535
1226,82.66047
1225,82.53249
1224,83.23954
1223,84.58855
1222,86.15781
1221,87.52091
1220,88.29165
1219,88.27295
1218,87.48156
1217,86.28508
1216,85.10221
1215,84.29933
1214,84.14208
1213,84.66333
1212,85.69632
1211,86.95672
1210,88.00681
1209,88.49871
1208,88.27644
1207,87.46657
1206,86.38463
1205,85.41992
1204,85.01802
1203,85.37008
1202,86.32056
1201,87.59441
1200,88.84791
1199,89.61898
1198,89.61044
1197,89.01175
1196,88.17557
1195,87.56708
1194,87.53515
1193,88.16371
1192,89.32599
1191,90.63918
1190,91.55759
1189,91.73058
1188,91.19757
1187,90.27217
1186,89.42841
1185,89.10777
1184,89.52654
1183,90.60035
1182,91.96785
1181,93.10000
1180,93.54493
1179,93.12822
1178,92.04778
1177,90.77002
1176,89.84411
1175,89.61231
