wavelength,transmission
0.23,32.05956
0.24,12.79264
0.25,16.80748
0.26,24.80127
0.27,33.42666
0.28,39.33633
0.29,40.28095
0.3,40.25924
0.31,39.47243
0.32,39.29734
0.33,41.82419
0.34,49.60088
0.35,61.03755
0.36,71.53332
0.37,79.17197
0.38,83.85685
0.39,86.73133
0.4,88.55549
0.41,89.75869
0.42,90.57527
0.43,91.09418
0.44,91.45408
0.45,91.66057
0.46,91.83429
0.47,91.9087
0.48,91.91974
0.49,91.82825
0.5,91.72228
0.51,91.55857
0.52,91.35656
0.53,91.0988
0.54,90.81507
0.55,90.48587
0.56,89.87606
0.57,89.49116
0.58,89.05861
0.59,88.59494
0.6,88.08464
0.61,87.55399
0.62,86.98691
0.63,86.35923
0.64,85.69449
0.65,84.99664
0.66,84.27653
0.67,83.50056
0.68,82.68347
0.69,81.83402
0.7,80.93554
0.71,79.99127
0.72,79.02747
0.73,77.99936
0.74,76.93077
0.75,75.86267
0.76,74.78868
0.77,73.68757
0.78,72.67067
0.79,71.6982
0.8,70.91248
0.81,70.27381
0.82,69.89287
0.83,69.78336
0.84,69.96844
0.85,70.4107
0.86,71.0801
0.87,71.93133
0.88,72.90515
0.89,73.11024
0.9,74.19009
0.91,75.21998
0.92,76.25676
0.93,77.26586
0.94,78.20329
0.95,79.09572
0.96,79.93578
0.97,80.76847
0.98,81.54983
0.99,82.24814
1,82.88332
1.01,83.49179
1.02,84.06963
1.03,84.64554
1.04,85.18072
1.05,85.65769
1.06,86.07669
1.07,86.50662
1.08,86.96504
1.09,87.37565
1.1,87.72427
1.11,88.05702
1.12,88.35545
1.13,88.68749
1.14,88.97335
1.15,89.22633
1.16,89.4732
1.17,89.71499
1.18,89.94626
1.19,90.12345
1.2,90.3352
1.21,90.59816
1.22,90.77156
1.23,90.96428
1.24,91.16304
1.25,91.26728
1.26,91.40866
1.27,91.62409
1.28,91.78054
1.29,91.9044
1.3,92.01728
1.31,92.1438
1.32,92.28664
1.33,92.39717
1.34,92.46209
1.35,92.53741
1.36,92.63839
1.37,92.7547
1.38,92.87103
1.39,92.96149
1.4,93.05742
1.41,93.16561
1.42,93.24925
1.43,93.29545
1.44,93.35418
1.45,93.45122
1.46,93.55953
1.47,93.63802
1.48,93.70262
1.49,93.7707
1.5,93.82945
1.51,93.88297
1.52,93.94203
1.53,93.98329
1.54,94.03981
1.55,94.12185
1.56,94.18375
1.57,94.23097
1.58,94.28882
1.59,94.34791
1.6,94.37789
1.61,94.41373
1.62,94.46519
1.63,94.48834
1.64,94.51047
1.65,94.55517
1.66,94.63174
1.67,94.68645
1.68,94.77372
1.69,94.824
1.7,94.82738
1.71,94.89165
1.72,94.95638
1.73,94.97442
1.74,94.98419
1.75,95.00162
1.76,94.99304
1.77,94.9639
1.78,94.9451
1.79,94.9242
1.8,94.92515
1.81,94.95214
1.82,95.02135
1.83,95.0882
1.84,95.12754
1.85,95.15513
1.86,95.18204
1.87,95.18075
1.88,95.1615
1.89,95.1282
1.9,95.12116
1.91,95.12136
1.92,95.11638
1.93,95.12046
1.94,95.1387
1.95,95.17433
1.96,95.22541
1.97,95.27977
1.98,95.33463
1.99,95.36761
2,95.37332
2.01,95.36372
2.02,95.32995
2.03,95.28466
2.04,95.24032
2.05,95.21215
2.06,95.19765
2.07,95.16063
2.08,95.15447
2.09,95.20252
2.1,95.24883
2.11,95.32558
2.12,95.37717
2.13,95.43998
2.14,95.49802
2.15,95.51503
2.16,95.53172
2.17,95.49594
2.18,95.47617
2.19,95.46786
2.2,95.41233
2.21,95.37083
2.22,95.33933
2.23,95.31193
2.24,95.2869
2.25,95.27495
2.26,95.29539
2.27,95.33066
2.28,95.34393
2.29,95.41097
2.3,95.47209
2.31,95.59291
2.32,95.64344
2.33,95.62134
2.34,95.64308
2.35,95.64433
2.36,95.66537
2.37,95.5789
2.38,95.56364
2.39,95.53948
2.4,95.49139
2.41,95.44296
2.42,95.45107
2.43,95.38924
2.44,95.33851
2.45,95.32911
2.46,95.28531
2.47,95.38315
2.48,95.3911
2.49,95.52371
2.5,95.48515
2.51,95.68044
2.52,95.66555
2.53,95.71403
2.54,95.71928
2.55,95.8776
2.56,95.66478
2.57,95.73789
2.58,95.5768
2.59,95.60735
2.6,95.80077
2.61973,96.021
2.62966,96.00588
2.63959,95.99094
2.64952,95.97619
2.65971,95.96121
2.66963,95.94682
2.67954,95.93261
2.68973,95.91818
2.69963,95.90433
2.70953,95.89066
2.7197,95.87677
2.72959,95.86344
2.73948,95.85028
2.74963,95.83693
2.75951,95.82411
2.76966,95.8111
2.77953,95.79862
2.78967,95.78595
2.79953,95.7738
2.80966,95.76147
2.81951,95.74964
2.82963,95.73764
2.83947,95.72613
2.84958,95.71446
2.85941,95.70326
2.86952,95.6919
2.87961,95.68071
2.88943,95.66997
2.89952,95.65909
2.9096,95.64836
2.91941,95.63808
2.92948,95.62765
2.93955,95.61738
2.94934,95.60753
2.9594,95.59756
2.96945,95.58773
2.9795,95.57804
2.98954,95.5685
2.99958,95.55911
3.00934,95.55011
3.01937,95.541
3.02939,95.53202
3.03941,95.52319
3.04942,95.51449
3.05943,95.50593
3.06943,95.49751
3.07943,95.48921
3.08943,95.48105
3.09941,95.47303
3.1094,95.46513
3.11937,95.45736
3.12934,95.44972
3.13931,95.44221
3.14927,95.43482
3.15923,95.42756
3.16945,95.42022
3.17939,95.4132
3.18934,95.40631
3.19927,95.39954
3.2092,95.39288
3.21939,95.38616
3.22931,95.37974
3.23922,95.37344
3.2494,95.36708
3.2593,95.361
3.2692,95.35504
3.27936,95.34903
3.28924,95.34329
3.29939,95.3375
3.30927,95.33198
3.31914,95.32657
3.32927,95.32112
3.33912,95.31592
3.34924,95.31068
3.35936,95.30555
3.3692,95.30066
3.3793,95.29574
3.38913,95.29106
3.39922,95.28634
3.4093,95.28173
3.41911,95.27734
3.42918,95.27293
3.43925,95.26861
3.44931,95.2644
3.4591,95.26039
3.46915,95.25637
3.47919,95.25244
3.48922,95.2486
3.49925,95.24486
3.50927,95.24121
3.51903,95.23775
3.52904,95.23428
3.53904,95.2309
3.54904,95.22761
3.55903,95.2244
3.56902,95.22128
3.579,95.21825
3.58923,95.21522
3.5992,95.21236
3.60916,95.20958
3.61911,95.20688
3.62906,95.20426
3.639,95.20172
3.6492,95.19919
3.65913,95.19682
3.66905,95.19451
3.67897,95.19229
3.68913,95.19008
3.69904,95.188
3.70893,95.18601
3.71908,95.18402
3.72896,95.18217
3.7391,95.18034
3.74897,95.17863
3.75909,95.17694
3.76895,95.17537
3.77906,95.17382
3.7889,95.17239
3.79899,95.17098
3.80908,95.16964
3.8189,95.1684
3.82898,95.16719
3.83904,95.16605
3.8491,95.16498
3.8589,95.164
3.86894,95.16305
3.87898,95.16216
3.88901,95.16134
3.89903,95.16058
3.90905,95.15987
3.91906,95.15923
3.9288,95.15867
3.9388,95.15814
3.94904,95.15765
3.95902,95.15724
3.96899,95.15688
3.97896,95.15658
3.98892,95.15633
3.99887,95.15614
4.00881,95.156
4.019,95.1559
4.02893,95.15587
4.03885,95.15588
4.04876,95.15594
4.05892,95.15606
4.06882,95.15622
4.07896,95.15643
4.08885,95.15669
4.09872,95.15699
4.10884,95.15735
4.1187,95.15774
4.12881,95.15819
4.1389,95.15868
4.14874,95.15921
4.15882,95.15979
4.16889,95.16042
4.1787,95.16107
4.18876,95.16178
4.19881,95.16254
4.20885,95.16333
4.21888,95.16416
4.22865,95.16502
4.23867,95.16593
4.24867,95.16687
4.25867,95.16786
4.26866,95.16888
4.27865,95.16994
4.28862,95.17104
4.29883,95.1722
4.30879,95.17336
4.31874,95.17456
4.32868,95.1758
4.33861,95.17706
4.34878,95.17839
4.3587,95.17972
4.3686,95.18108
4.37875,95.18251
4.38864,95.18393
4.39876,95.18542
4.40864,95.1869
4.41875,95.18844
4.4286,95.18998
4.43869,95.19158
4.44853,95.19317
4.4586,95.19483
4.46866,95.19651
4.47872,95.19822
4.48852,95.19991
4.49856,95.20167
4.50859,95.20345
4.5186,95.20525
4.52861,95.20708
4.53861,95.20894
4.5486,95.46591
4.55859,95.46794
4.56856,95.46975
4.57852,95.47133
4.58847,95.47269
4.59866,95.47385
4.60859,95.47476
4.61852,95.47546
4.62843,95.47594
4.63858,95.4762
4.64848,95.47625
4.65861,95.47608
4.66848,95.4757
4.67859,95.47509
4.68845,95.4743
4.69854,95.47327
4.70861,95.47203
4.71844,95.47063
4.7285,95.46898
4.73855,95.46713
4.74858,95.46508
4.75837,95.4629
4.76839,95.46046
4.7784,95.45783
4.78839,95.45502
4.79838,95.45202
4.80836,95.44883
4.81832,95.44547
4.82852,95.44185
4.83846,95.43813
4.84839,95.43425
4.85832,95.4302
4.86847,95.42588
4.87837,95.42151
4.8885,95.41687
4.89838,95.41219
4.90849,95.40724
4.91835,95.40226
4.92843,95.39701
4.93827,95.39175
4.94833,95.38623
4.95838,95.38057
4.96842,95.37479
4.97845,95.36887
4.98824,95.36298
4.99824,95.35683
5.00853,95.35038
5.01835,95.34411
5.02817,95.33774
5.03799,95.33126
5.04856,95.32417
5.05837,95.31749
5.06819,95.31071
5.078,95.30386
5.08856,95.29638
5.09838,95.28935
5.10818,95.28225
5.11799,95.27508
5.12855,95.26728
5.13836,95.25998
5.14817,95.25263
5.15797,95.24522
5.16853,95.23719
5.17833,95.22969
5.18813,95.22215
5.19793,95.21457
5.20848,95.20639
5.21828,95.19876
5.22808,95.19111
5.23787,95.18345
5.24842,95.17519
5.25821,95.16752
5.26801,95.15984
5.27855,95.15159
5.28834,95.14393
5.29813,95.13628
5.30792,95.12866
5.31845,95.12048
5.32824,95.11291
5.33802,95.10538
5.34781,95.09788
5.35834,95.08986
5.36812,95.08247
5.3779,95.07513
5.38843,95.06729
5.39821,95.06007
5.40799,95.05293
5.41776,95.04586
5.42829,95.03834
5.43806,95.03144
5.44783,95.02463
5.45836,95.0174
5.46813,95.01079
5.47789,95.00428
5.48841,94.99739
5.49818,94.99112
5.50794,94.98496
5.51771,94.97893
5.52822,94.97257
5.53798,94.9668
5.54774,94.96118
5.55825,94.95527
5.56801,94.94995
5.57777,94.94477
5.58827,94.93937
5.59803,94.93452
5.60778,94.92983
5.61828,94.92498
5.62803,94.92065
5.63778,94.91649
5.64828,94.91223
5.65803,94.90846
5.66777,94.90488
5.67827,94.90124
5.68801,94.89807
5.69775,94.8951
5.70825,94.89213
5.71799,94.88959
5.72772,94.88727
5.73821,94.88501
5.74795,94.88314
5.75768,94.88149
5.76817,94.87998
5.7779,94.87881
5.78763,94.87788
5.79811,94.87714
5.80784,94.8767
5.81757,94.87651
5.82804,94.87658
5.83777,94.8769
5.84749,94.87748
5.85796,94.87838
5.86768,94.87949
5.87815,94.88097
5.88787,94.88261
5.89759,94.88453
5.90805,94.88688
5.91777,94.88935
5.92748,94.89208
5.93794,94.89533
5.94765,94.89863
5.95811,94.90249
5.96782,94.90636
5.97753,94.91051
5.98798,94.91528
5.99769,94.92001
6.00814,94.92541
6.01784,94.93071
6.02754,94.93629
6.03799,94.94262
6.04769,94.94879
6.05738,94.95523
6.06783,94.96249
6.07752,94.96951
6.08796,94.97739
6.09765,94.98499
6.10809,94.99349
6.11778,95.00167
6.12747,95.01012
6.1379,95.01953
6.14759,95.02855
6.15802,95.03857
6.1677,95.04814
6.17738,95.05799
6.18781,95.06888
6.19749,95.07926
6.20791,95.09074
6.21759,95.10165
6.22801,95.11369
6.23768,95.12513
6.24735,95.1368
6.25777,95.14965
6.26744,95.16182
6.27785,95.17519
6.28752,95.18784
6.29793,95.20171
6.30759,95.21481
6.31726,95.22813
6.32766,95.2427
6.33732,95.25644
6.34773,95.27145
6.35738,95.28558
6.36778,95.30101
6.37744,95.31551
6.38784,95.33132
6.39749,95.34616
6.40788,95.36231
6.41753,95.37746
6.42718,95.39275
6.43757,95.40936
6.44722,95.4249
6.4576,95.44176
6.46725,95.45752
6.47763,95.4746
6.48727,95.49054
6.49765,95.50779
6.50729,95.52386
6.51767,95.54123
6.5273,95.5574
6.53767,95.57484
6.54731,95.59105
6.55768,95.60851
6.56731,95.62471
6.57768,95.64213
6.5873,95.65827
6.59767,95.6756
6.60729,95.69163
6.61765,95.7088
6.62727,95.72465
6.63763,95.7416
6.64725,95.75722
6.65761,95.77388
6.66722,95.78919
6.67757,95.80549
6.68719,95.82043
6.69754,95.8363
6.70715,95.8508
6.71749,95.86615
6.7271,95.88014
6.73744,95.8949
6.74705,95.9083
6.75739,95.92238
6.76699,95.9351
6.77733,95.94842
6.78766,95.96129
6.79726,95.97284
6.80759,95.98481
6.81718,95.99547
6.82751,96.00644
6.83711,96.01612
6.84743,96.02597
6.85702,96.03458
6.86734,96.04322
6.87693,96.05065
6.88725,96.05798
6.89757,96.06457
6.90715,96.07002
6.91746,96.07512
6.92704,96.07913
6.93735,96.08262
6.94693,96.08507
6.95723,96.08682
6.96754,96.08763
6.97711,96.08749
6.98742,96.08637
6.99698,96.08438
7.00728,96.08119
7.01685,96.07722
7.02714,96.07182
7.03744,96.06523
7.047,96.058
7.05729,96.04899
7.06685,96.03944
7.07714,96.02785
7.08743,96.01487
7.09698,96.00154
7.10726,95.98575
7.11681,95.96973
7.12709,95.95098
7.13737,95.93062
7.14692,95.91024
7.15719,95.88666
7.16747,95.86134
7.17701,95.83623
7.18728,95.80742
7.19681,95.77898
7.20708,95.74651
7.21735,95.71205
7.22688,95.67825
7.23714,95.63984
7.2474,95.59931
7.25693,95.55972
7.26719,95.51494
7.27671,95.47131
7.28697,95.42207
7.29722,95.37045
7.30674,95.32032
7.31699,95.26392
7.32724,95.20497
7.33675,95.14789
7.34699,95.08384
7.35724,95.01706
7.36675,94.95254
7.37698,94.88032
7.38722,94.84246
7.39673,94.80552
7.40696,94.76663
7.41719,94.72635
7.42669,94.68594
7.43692,94.64405
7.44715,94.60084
7.45664,94.55721
7.46687,94.51217
7.47709,94.21408
7.48731,94.14502
7.4968,94.3852
7.50701,94.39585
7.51723,94.44367
7.52671,94.49686
7.53692,94.50867
7.54713,94.48869
7.55661,94.45071
7.56682,93.81988
7.57702,93.81745
7.58723,93.8156
7.5967,93.81378
7.6069,93.81168
7.61709,93.81013
7.62656,93.80779
7.63675,93.80418
7.64695,93.7988
7.65714,93.79415
7.6666,93.79035
7.67678,93.78704
7.68697,93.78452
7.69715,93.78205
7.7066,93.77953
7.71678,93.77868
7.72696,93.77817
7.73714,93.77764
7.74658,93.77718
7.75676,93.77663
7.76693,93.77607
7.77709,93.77549
7.78653,93.77499
7.7967,93.7744
7.80686,93.77379
7.81702,93.77317
7.82646,93.77263
7.83661,93.77199
7.84677,93.77134
7.85692,93.77068
7.86707,93.77
7.8765,93.76942
7.88665,93.76872
7.89679,93.76802
7.90694,93.76731
7.91636,93.76669
7.9265,93.76596
7.93664,93.76521
7.94677,93.76446
7.95691,93.7637
7.96704,93.76293
7.97645,93.76226
7.98658,93.76147
7.9967,93.76068
8.00683,93.75987
8.01695,93.75906
8.02635,93.75835
8.03647,93.75752
8.04659,93.75668
8.05671,93.75584
8.06682,93.75498
8.07693,93.75412
8.08632,93.75337
8.09643,93.75249
8.10654,93.75161
8.11664,93.75072
8.12675,93.74982
8.13685,93.74892
8.14694,93.748
8.15632,93.74721
8.16642,93.74628
8.17651,93.74535
8.1866,93.74442
8.19669,93.74348
8.20678,93.74253
8.21686,93.74157
8.22623,93.74074
8.23631,93.73978
8.24639,93.73881
8.25646,93.73783
8.26654,93.73685
8.27661,93.73587
8.28669,93.73488
8.29676,93.73388
8.30682,93.73289
8.31617,93.73202
8.32623,93.73101
8.3363,93.73
8.34636,93.72899
8.35641,93.72797
8.36647,93.72695
8.37652,93.72593
8.38658,93.7249
8.39663,93.72387
8.40667,93.72284
8.41672,93.7218
8.42676,93.72077
8.43609,93.71987
8.44613,93.71883
8.45617,93.71778
8.4662,93.71674
8.47624,93.71569
8.48627,93.71465
8.4963,93.7136
8.50633,93.71255
8.51635,93.7115
8.52638,93.71045
8.5364,93.70939
8.54642,93.70834
8.55644,93.70729
8.56645,93.70624
8.57646,93.70519
8.58648,93.70413
8.59649,93.70308
8.60649,93.70203
8.6165,93.70098
8.6265,93.69994
8.6365,93.69889
8.6465,93.69785
8.6565,93.6968
8.6665,93.69576
8.67649,93.69472
8.68648,93.69369
8.69647,93.69265
8.70646,93.69162
8.71644,93.69059
8.72642,93.68957
8.7364,93.68855
8.74638,93.68753
8.75636,93.68651
8.76633,93.6855
8.7763,93.6845
8.78627,93.68349
8.79624,93.6825
8.80621,93.6815
8.81617,93.68052
8.82613,93.67953
8.83609,93.67856
8.84605,93.67759
8.85601,93.67662
8.86596,93.67566
8.87591,93.67471
8.88586,93.67376
8.89652,93.67266
8.90646,93.67173
8.91641,93.6708
8.92635,93.66988
8.93628,93.66897
8.94622,93.66807
8.95615,93.66717
8.96609,93.66629
8.97602,93.66541
8.98594,93.66454
8.99587,93.66368
9.00579,93.66283
9.01642,93.66183
9.02634,93.661
9.03626,93.66018
9.04617,93.65937
9.05608,93.65857
9.06599,93.65778
9.0759,93.657
9.08581,93.65623
9.09571,93.65548
9.10632,93.65457
9.11622,93.65384
9.12612,93.65312
9.13601,93.65242
9.1459,93.65172
9.15579,93.65104
9.16568,93.65038
9.17627,93.64956
9.18616,93.64892
9.19604,93.6483
9.20592,93.64769
9.2158,93.6471
9.22567,93.64652
9.23625,93.64579
9.24612,93.64525
9.25599,93.64472
9.26585,93.6442
9.27572,93.64371
9.28628,93.64306
9.29614,93.6426
9.306,93.64216
9.31585,93.64173
9.32571,93.64133
9.33626,93.64077
9.34611,93.64041
9.35595,93.64006
9.3658,93.63973
9.37564,93.63942
9.38618,93.63897
9.39602,93.6387
9.40585,93.63845
9.41568,93.63823
9.42621,93.63787
9.43604,93.63769
9.44587,93.63753
9.45569,93.6374
9.46551,93.63723
9.47603,93.63699
9.48585,93.63693
9.49566,93.63689
9.50617,93.63672
9.51598,93.63674
9.52579,93.63678
9.53559,93.63685
9.54609,93.63678
9.55589,93.63691
9.56569,93.63706
9.57549,93.63724
9.58598,93.63729
9.59577,93.63753
9.60556,93.6378
9.61604,93.63795
9.62583,93.63828
9.63561,93.63864
9.64608,93.63888
9.65586,93.63931
9.66563,93.63977
9.67541,93.64027
9.68587,93.64064
9.69564,93.64121
9.7054,93.64181
9.71586,93.64229
9.72562,93.64297
9.73538,93.64368
9.74583,93.64427
9.75558,93.64506
9.76603,93.64574
9.77578,93.64661
9.78552,93.64752
9.79596,93.64832
9.8057,93.64931
9.81544,93.65035
9.82587,93.65128
9.83561,93.6524
9.84534,93.65357
9.85576,93.65464
9.86549,93.6559
9.87591,93.65706
9.88563,93.65842
9.89535,93.65983
9.90576,93.66114
9.91547,93.66265
9.92588,93.66407
9.93559,93.66569
9.94529,93.66736
9.95569,93.66894
9.96539,93.67072
9.97578,93.67241
9.98548,93.67431
9.99587,93.67612
10.00556,93.67814
10.01525,93.68022
10.02563,93.68222
10.03531,93.68442
10.04569,93.68655
10.05537,93.68889
10.06573,93.69115
10.07541,93.69363
10.08577,93.69603
10.09544,93.69865
10.1058,93.7012
10.11546,93.70396
10.12582,93.70667
10.13548,93.70958
10.14513,93.71258
10.15548,93.71552
10.16513,93.71868
10.17547,93.7218
10.18512,93.72513
10.19545,93.72841
10.20578,93.73179
10.21542,93.73539
10.22575,93.73896
10.23538,93.74275
10.2457,93.74651
10.25533,93.7505
10.26564,93.75447
10.27527,93.75866
10.28558,93.76284
10.2952,93.76725
10.3055,93.77166
10.31511,93.7763
10.32541,93.78093
10.33571,93.78569
10.34531,93.79069
10.3556,93.7957
10.36521,93.80096
10.37549,93.80624
10.38509,93.81176
10.39536,93.81731
10.40564,93.82301
10.41523,93.82897
10.4255,93.83496
10.43508,93.84122
10.44535,93.84753
10.45561,93.854
10.46519,93.86076
10.47544,93.86757
10.48501,93.87467
10.49526,93.88185
10.50551,93.88921
10.51507,93.89687
10.52532,93.90463
10.53556,93.91259
10.54511,93.92086
10.55534,93.92925
10.56558,93.93786
10.57512,93.94681
10.58535,93.95589
10.59489,93.96531
10.60511,93.97489
10.61533,93.98461
10.62554,93.99434
10.63507,94.00419
10.64528,94.01397
10.65548,94.02377
10.66501,94.03368
10.67521,94.04353
10.6854,94.05339
10.69492,94.06336
10.70511,94.07328
10.7153,94.08321
10.72548,94.09315
10.73499,94.1032
10.74517,94.11319
10.75534,94.1232
10.76484,94.13331
10.77501,94.14337
10.78518,94.15345
10.79534,94.16354
10.80483,94.17373
10.81499,94.18387
10.82515,94.19403
10.8353,94.2042
10.84477,94.21446
10.85492,94.22468
10.86507,94.23492
10.87521,94.24517
10.88535,94.25544
10.89481,94.26579
10.90494,94.2761
10.91507,94.28644
10.9252,94.29678
10.93532,94.30714
10.94477,94.31758
10.95489,94.32799
10.965,94.33842
10.97511,94.34886
10.98522,94.35932
10.99533,94.36978
11.00476,94.38032
11.01486,94.39084
11.02496,94.40138
11.03505,94.41193
11.04514,94.42249
11.05523,94.43307
11.06465,94.44371
11.07473,94.45434
11.08481,94.46499
11.09488,94.47565
11.10496,94.48632
11.11503,94.497
11.12509,94.5077
11.13516,94.51841
11.14522,94.52913
11.15461,94.53991
11.16466,94.5507
11.17472,94.5615
11.18476,94.57232
11.19481,94.58315
11.20485,94.59399
11.21489,94.60484
11.22493,94.61571
11.23496,94.62659
11.245,94.63748
11.25502,94.64839
11.26505,94.65931
11.27507,94.67024
11.28509,94.68118
11.2951,94.69213
11.30511,94.7031
11.31512,94.71407
11.32513,94.72506
11.33513,94.73606
11.34513,94.74707
11.35513,94.75809
11.36512,94.76912
11.37511,94.78017
11.3851,94.79122
11.39509,94.80228
11.40507,94.81336
11.41504,94.82444
11.42502,94.83554
11.43499,94.84664
11.44496,94.85775
11.45492,94.86888
11.46489,94.88001
11.47485,94.89115
11.4848,94.9023
11.49475,94.91346
11.5047,94.93591
11.51465,94.95836
11.52459,94.9808
11.53453,95.00323
11.54447,95.02566
11.55441,95.04807
11.565,95.07197
11.57493,95.09437
11.58485,95.11675
11.59477,95.13912
11.60469,95.16148
11.6146,95.18383
11.62451,95.20616
11.63442,95.22848
11.64433,95.25078
11.65489,95.27456
11.66479,95.29683
11.67468,95.31909
11.68458,95.34133
11.69446,95.36355
11.70435,95.38575
11.71489,95.40942
11.72477,95.43158
11.73465,95.45372
11.74452,95.47585
11.75439,95.49795
11.76425,95.50913
11.77478,95.52083
11.78463,95.53226
11.79449,95.5436
11.80434,95.5549
11.81485,95.5664
11.8247,95.57781
11.83454,95.58918
11.84438,95.60051
11.85422,95.61183
11.8647,95.62327
11.87453,95.63466
11.88436,95.64602
11.89418,95.65737
11.90466,95.66882
11.91448,95.68022
11.92429,95.69159
11.93475,95.70306
11.94456,95.71448
11.95436,95.72587
11.96416,95.73725
11.97461,95.74871
11.98441,95.76012
11.9942,95.77151
12.00464,95.78299
12.01442,95.7944
12.0242,95.8058
12.03463,95.81728
12.0444,95.8287
12.05417,95.8401
12.06459,95.85158
12.07435,95.86299
12.08411,95.87439
12.09452,95.88587
12.10427,95.89728
12.11467,95.90878
12.12441,95.92019
12.13416,95.9316
12.14455,95.94308
12.15428,95.95449
12.16466,95.96598
12.17439,95.97739
12.18412,95.98878
12.19449,96.00026
12.20421,96.01166
12.21457,96.02314
12.22428,96.03453
12.23464,96.04601
12.24434,96.0574
12.25404,96.06878
12.26439,96.08024
12.27408,96.09162
12.28442,96.10307
12.2941,96.11444
12.30443,96.12589
12.31411,96.13725
12.32444,96.1487
12.33411,96.16005
12.34443,96.17149
12.35409,96.18283
12.3644,96.19425
12.37406,96.20559
12.38436,96.217
12.39401,96.22832
12.4043,96.23973
12.41395,96.25103
